% Controller vroll
% Log with 1500 values (sample interval=0.1ms)
% Uses separate derivative input (gyro) 0
% data format:
% 1   Time (ms)
% 2   Control reference input (setpoint) (r)
% 3   after pre-filter (r2)
% 4   error after Kp (ep)
% 5   error after Kp and lead/lag, before I (up)
% 6   integrator output (ui)
% 7   Controller output (u) after limiter
% 8   measurement (m)
% 9   measurement after filter (m2)
% 10  Feed forward output (uf)
% 
20.87 2.70907 2.70907 -53.96616 -53.97 0.00 -53.97 20.69779 20.69779 0.00000
46.11 2.82618 2.82618 16.88519 16.89 0.00 16.89 -2.80222 -2.80222 0.00000
70.91 2.75302 2.75302 -2.83430 -2.83 0.00 -2.83 3.69779 3.69779 0.00000
96.09 2.90984 2.90984 35.32369 35.32 0.00 35.32 -8.86472 -8.86472 0.00000
120.87 2.82818 2.82818 23.82869 23.83 0.00 23.83 -5.11471 -5.11471 0.00000
146.11 2.57544 2.57544 -1.49205 -1.49 0.00 -1.49 3.07278 3.07278 0.00000
171.03 2.76611 2.76611 -20.42002 -20.42 0.00 -20.42 9.57278 9.57278 0.00000
196.20 2.60309 2.60309 59.15334 59.15 0.00 59.15 -17.11469 -17.11469 0.00000
220.93 2.58477 2.58477 17.84845 17.85 0.00 17.85 -3.36472 -3.36472 0.00000
246.08 2.56015 2.56015 9.14962 9.15 0.00 9.15 -0.48972 -0.48972 0.00000
270.87 2.58452 2.58452 -21.52731 -21.53 0.00 -21.53 9.76029 9.76029 0.00000
296.10 2.67225 2.67225 1.79834 1.80 0.00 1.80 2.07280 2.07280 0.00000
320.89 2.51299 2.51299 54.19561 54.20 0.00 54.20 -15.55222 -15.55222 0.00000
346.08 2.40225 2.40225 -32.38660 -32.39 0.00 -32.39 13.19778 13.19778 0.00000
370.89 2.50568 2.50568 -23.07633 -23.08 0.00 -23.08 10.19779 10.19779 0.00000
396.08 2.55585 2.55585 59.19918 59.20 0.00 59.20 -17.17721 -17.17721 0.00000
420.90 2.32271 2.32271 -15.75025 -15.75 0.00 -15.75 7.57279 7.57279 0.00000
446.08 2.63085 2.63085 -41.26336 -41.26 0.00 -41.26 16.38530 16.38530 0.00000
470.89 2.69395 2.69395 69.36346 69.36 0.00 69.36 -20.42720 -20.42720 0.00000
496.11 2.53603 2.53603 -29.73527 -29.74 0.00 -29.74 12.44778 12.44778 0.00000
520.92 2.74817 2.74817 25.08864 25.09 0.00 25.09 -5.61471 -5.61471 0.00000
546.09 2.75259 2.75259 48.91441 48.91 0.00 48.91 -13.55221 -13.55221 0.00000
570.89 2.66681 2.66681 -52.40543 -52.41 0.00 -52.41 20.13528 20.13528 0.00000
596.09 2.93162 2.93162 57.32648 57.33 0.00 57.33 -16.17720 -16.17720 0.00000
620.90 2.81855 2.81855 32.98729 32.99 0.00 32.99 -8.17721 -8.17721 0.00000
646.08 3.02902 3.02902 -16.63128 -16.63 0.00 -16.63 8.57278 8.57278 0.00000
670.87 3.09199 3.09199 43.37008 43.37 0.00 43.37 -11.36470 -11.36470 0.00000
696.08 3.09437 3.09437 24.43977 24.44 0.00 24.44 -5.05222 -5.05222 0.00000
720.91 3.09098 3.09098 -20.38291 -20.38 0.00 -20.38 9.88528 9.88528 0.00000
746.09 3.22555 3.22555 58.95824 58.96 0.00 58.96 -16.42720 -16.42720 0.00000
770.87 3.03274 3.03274 -1.43265 -1.43 0.00 -1.43 3.51028 3.51028 0.00000
796.11 3.12885 3.12885 -12.39433 -12.39 0.00 -12.39 7.26029 7.26029 0.00000
820.87 3.07111 3.07111 51.93247 51.93 0.00 51.93 -14.23972 -14.23972 0.00000
846.08 2.97232 2.97232 -50.73888 -50.74 0.00 -50.74 19.88528 19.88528 0.00000
870.89 3.07491 3.07491 75.19386 75.19 0.00 75.19 -21.98971 -21.98971 0.00000
896.08 2.77681 2.77681 -33.88791 -33.89 0.00 -33.89 14.07278 14.07278 0.00000
920.92 2.99474 2.99474 51.32833 51.33 0.00 51.33 -14.11470 -14.11470 0.00000
945.89 2.62536 2.62536 -9.21725 -9.22 0.00 -9.22 5.69778 5.69778 0.00000
970.87 2.83585 2.83585 -5.39833 -5.40 0.00 -5.40 4.63529 4.63529 0.00000
995.89 2.89862 2.89862 33.41500 33.41 0.00 33.41 -8.23972 -8.23972 0.00000
1020.90 2.87660 2.87660 -39.96357 -39.96 0.00 -39.96 16.19779 16.19779 0.00000
1045.87 3.00956 3.00956 56.24783 56.25 0.00 56.25 -15.73971 -15.73971 0.00000
1070.89 2.89434 2.89434 -33.72283 -33.72 0.00 -33.72 14.13529 14.13529 0.00000
1095.90 3.15226 3.15226 48.80091 48.80 0.00 48.80 -13.11471 -13.11471 0.00000
1120.92 2.89718 2.89718 -25.46430 -25.46 0.00 -25.46 11.38528 11.38528 0.00000
1145.90 3.13112 3.13112 46.29997 46.30 0.00 46.30 -12.30220 -12.30220 0.00000
1170.87 2.81628 2.81628 -21.20701 -21.21 0.00 -21.21 9.88529 9.88529 0.00000
1195.90 3.09570 3.09570 29.88122 29.88 0.00 29.88 -6.86471 -6.86471 0.00000
1220.88 2.71424 2.71424 -24.51315 -24.51 0.00 -24.51 10.88528 10.88528 0.00000
1245.87 2.97862 2.97862 42.27997 42.28 0.00 42.28 -11.11470 -11.11470 0.00000
1270.91 2.64231 2.64231 -20.22894 -20.23 0.00 -20.23 9.38529 9.38529 0.00000
1295.87 2.77348 2.77348 20.28955 20.29 0.00 20.29 -3.98970 -3.98970 0.00000
1320.90 2.57415 2.57415 -15.18342 -15.18 0.00 -15.18 7.63529 7.63529 0.00000
1345.87 2.54704 2.54704 21.11026 21.11 0.00 21.11 -4.48972 -4.48972 0.00000
1370.87 2.54787 2.54787 0.86273 0.86 0.00 0.86 2.26029 2.26029 0.00000
1395.99 2.57742 2.57742 49.13887 49.14 0.00 49.14 -13.80220 -13.80220 0.00000
1420.93 2.54992 2.54992 21.86887 21.87 0.00 21.87 -4.73971 -4.73971 0.00000
1445.89 2.61634 2.61634 -2.11933 -2.12 0.00 -2.12 3.32278 3.32278 0.00000
1470.87 2.54513 2.54513 17.54201 17.54 0.00 17.54 -3.30221 -3.30221 0.00000
1495.91 2.74013 2.74013 24.68953 24.69 0.00 24.69 -5.48971 -5.48971 0.00000
1520.90 2.75207 2.75207 35.78789 35.79 0.00 35.79 -9.17723 -9.17723 0.00000
1545.91 2.65870 2.65870 -38.92978 -38.93 0.00 -38.93 15.63529 15.63529 0.00000
1570.91 2.86168 2.86168 -7.00835 -7.01 0.00 -7.01 5.19779 5.19779 0.00000
1595.90 2.86158 2.86158 61.24140 61.24 0.00 61.24 -17.55222 -17.55222 0.00000
1620.90 2.61334 2.61334 -43.37836 -43.38 0.00 -43.38 17.07279 17.07279 0.00000
1645.91 2.83292 2.83292 -1.09465 -1.09 0.00 -1.09 3.19780 3.19780 0.00000
1670.90 2.43839 2.43839 28.84682 28.85 0.00 28.85 -7.17722 -7.17722 0.00000
1695.86 2.31870 2.31870 -58.69976 -58.70 0.00 -58.70 21.88529 21.88529 0.00000
1720.87 2.47573 2.47573 57.64626 57.65 0.00 57.65 -16.73969 -16.73969 0.00000
1745.89 2.22014 2.22014 7.00461 7.00 0.00 7.00 -0.11473 -0.11473 0.00000
1770.88 2.38602 2.38602 -10.31029 -10.31 0.00 -10.31 5.82279 5.82279 0.00000
1795.87 2.30363 2.30363 51.31752 51.32 0.00 51.32 -14.80221 -14.80221 0.00000
1820.88 2.25924 2.25924 -47.44063 -47.44 0.00 -47.44 18.07278 18.07278 0.00000
1845.87 2.31701 2.31701 54.17012 54.17 0.00 54.17 -15.73970 -15.73970 0.00000
1870.87 2.17550 2.17550 -7.94186 -7.94 0.00 -7.94 4.82278 4.82278 0.00000
1895.90 2.34739 2.34739 -31.80118 -31.80 0.00 -31.80 12.94779 12.94779 0.00000
1920.87 2.32147 2.32147 47.99605 48.00 0.00 48.00 -13.67721 -13.67721 0.00000
1945.87 2.23161 2.23161 -37.02353 -37.02 0.00 -37.02 14.57279 14.57279 0.00000
1970.87 2.58084 2.58084 45.21161 45.21 0.00 45.21 -12.48970 -12.48970 0.00000
1995.89 2.38794 2.38794 9.38297 9.38 0.00 9.38 -0.73972 -0.73972 0.00000
2020.88 2.53722 2.53722 -40.41922 -40.42 0.00 -40.42 16.01029 16.01029 0.00000
2045.90 2.57609 2.57609 56.44740 56.45 0.00 56.45 -16.23971 -16.23971 0.00000
2070.90 2.28421 2.28421 -39.86574 -39.87 0.00 -39.87 15.57279 15.57279 0.00000
2095.89 2.44152 2.44152 21.16866 21.17 0.00 21.17 -4.61470 -4.61470 0.00000
2120.91 2.21062 2.21062 -12.52401 -12.52 0.00 -12.52 6.38529 6.38529 0.00000
2145.91 2.30058 2.30058 8.74583 8.75 0.00 8.75 -0.61470 -0.61470 0.00000
2170.87 2.05432 2.05432 -15.05541 -15.06 0.00 -15.06 7.07279 7.07279 0.00000
2195.86 2.18243 2.18243 7.07891 7.08 0.00 7.08 -0.17720 -0.17720 0.00000
2220.86 1.98341 1.98341 0.10690 0.11 0.00 0.11 1.94778 1.94778 0.00000
2245.87 1.87233 1.87233 -25.16390 -25.16 0.00 -25.16 10.26030 10.26030 0.00000
2270.87 1.81464 1.81464 24.91305 24.91 0.00 24.91 -6.48971 -6.48971 0.00000
2295.87 1.77620 1.77620 -25.07726 -25.08 0.00 -25.08 10.13529 10.13529 0.00000
2320.92 1.68522 1.68522 29.02481 29.02 0.00 29.02 -7.98972 -7.98972 0.00000
2345.90 1.64598 1.64598 -29.96794 -29.97 0.00 -29.97 11.63529 11.63529 0.00000
2370.87 1.60079 1.60079 30.83405 30.83 0.00 30.83 -8.67722 -8.67722 0.00000
2395.91 1.60168 1.60168 -34.03835 -34.04 0.00 -34.04 12.94779 12.94779 0.00000
2420.87 1.61403 1.61403 20.56126 20.56 0.00 20.56 -5.23973 -5.23973 0.00000
2445.88 1.74976 1.74976 20.96839 20.97 0.00 20.97 -5.23971 -5.23971 0.00000
2470.87 1.64198 1.64198 7.33258 7.33 0.00 7.33 -0.80221 -0.80221 0.00000
2495.88 1.99769 1.99769 16.27468 16.27 0.00 16.27 -3.42721 -3.42721 0.00000
2520.88 1.65891 1.65891 -4.05414 -4.05 0.00 -4.05 3.01029 3.01029 0.00000
2545.90 1.98339 1.98339 4.98181 4.98 0.00 4.98 0.32279 0.32279 0.00000
2570.87 1.86369 1.86369 1.81021 1.81 0.00 1.81 1.26029 1.26029 0.00000
2596.04 2.04184 2.04184 -40.40532 -40.41 0.00 -40.41 15.51028 15.51028 0.00000
2620.98 2.21112 2.21112 34.35244 34.35 0.00 34.35 -9.23969 -9.23969 0.00000
2645.90 2.03599 2.03599 35.88964 35.89 0.00 35.89 -9.92722 -9.92722 0.00000
2670.87 2.19468 2.19468 -8.82177 -8.82 0.00 -8.82 5.13527 5.13527 0.00000
2695.89 2.15624 2.15624 45.43781 45.44 0.00 45.44 -12.98970 -12.98970 0.00000
2720.87 2.05088 2.05088 21.68433 21.68 0.00 21.68 -5.17723 -5.17723 0.00000
2745.90 1.87988 1.87988 -17.07871 -17.08 0.00 -17.08 7.57278 7.57278 0.00000
2770.90 1.91432 1.91432 -6.10045 -6.10 0.00 -6.10 3.94780 3.94780 0.00000
2795.87 2.05600 2.05600 46.63715 46.64 0.00 46.64 -13.48972 -13.48972 0.00000
2820.90 1.87788 1.87788 -19.52223 -19.52 0.00 -19.52 8.38529 8.38529 0.00000
2845.88 2.02238 2.02238 -25.46376 -25.46 0.00 -25.46 10.51030 10.51030 0.00000
2870.87 2.04557 2.04557 60.66837 60.67 0.00 60.67 -18.17721 -18.17721 0.00000
2895.89 1.90738 1.90738 -26.18369 -26.18 0.00 -26.18 10.63528 10.63528 0.00000
2920.87 2.13275 2.13275 -1.32011 -1.32 0.00 -1.32 2.57279 2.57279 0.00000
2945.91 2.26689 2.26689 49.51979 49.52 0.00 49.52 -14.23971 -14.23971 0.00000
2970.87 1.97044 1.97044 -36.49458 -36.49 0.00 -36.49 14.13530 14.13530 0.00000
2995.90 2.20817 2.20817 12.96860 12.97 0.00 12.97 -2.11470 -2.11470 0.00000
3020.87 2.02910 2.02910 33.24400 33.24 0.00 33.24 -9.05223 -9.05223 0.00000
3045.86 1.94237 1.94237 -42.20375 -42.20 0.00 -42.20 16.01029 16.01029 0.00000
3070.87 2.20061 2.20061 33.94594 33.95 0.00 33.95 -9.11470 -9.11470 0.00000
3095.91 1.84985 1.84985 -3.48131 -3.48 0.00 -3.48 3.01028 3.01028 0.00000
3120.91 1.96159 1.96159 -23.20862 -23.21 0.00 -23.21 9.69779 9.69779 0.00000
3145.92 1.95743 1.95743 50.27895 50.28 0.00 50.28 -14.80222 -14.80222 0.00000
3170.87 1.91808 1.91808 -60.46416 -60.46 0.00 -60.46 22.07280 22.07280 0.00000
3195.87 2.15852 2.15852 64.00714 64.01 0.00 64.01 -19.17720 -19.17720 0.00000
3220.89 1.82466 1.82466 -35.05686 -35.06 0.00 -35.06 13.51028 13.51028 0.00000
3245.91 2.28741 2.28741 28.20633 28.21 0.00 28.21 -7.11471 -7.11471 0.00000
3270.90 2.01030 2.01030 3.00006 3.00 0.00 3.00 1.01028 1.01028 0.00000
3295.91 2.11750 2.11750 -27.05338 -27.05 0.00 -27.05 11.13529 11.13529 0.00000
3320.67 2.08813 2.08813 28.54605 28.55 0.00 28.55 -7.42722 -7.42722 0.00000
3345.88 2.07626 2.07626 -41.61460 -41.61 0.00 -41.61 15.94779 15.94779 0.00000
3370.87 2.17490 2.17490 70.99385 70.99 0.00 70.99 -21.48971 -21.48971 0.00000
3395.90 1.96170 1.96170 -55.64577 -55.65 0.00 -55.65 20.51029 20.51029 0.00000
3420.90 2.24847 2.24847 68.40203 68.40 0.00 68.40 -20.55220 -20.55220 0.00000
3445.88 1.93872 1.93872 -50.46468 -50.46 0.00 -50.46 18.76028 18.76028 0.00000
3470.91 2.26019 2.26019 59.99968 60.00 0.00 60.00 -17.73970 -17.73970 0.00000
3495.87 1.77122 1.77122 -29.21719 -29.22 0.00 -29.22 11.51029 11.51029 0.00000
3520.90 2.03573 2.03573 35.32632 35.33 0.00 35.33 -9.73971 -9.73971 0.00000
3545.91 1.53272 1.53272 -16.24520 -16.25 0.00 -16.25 6.94779 6.94779 0.00000
3570.88 1.77961 1.77961 35.68294 35.68 0.00 35.68 -10.11470 -10.11470 0.00000
3595.92 1.57987 1.57987 -11.97877 -11.98 0.00 -11.98 5.57279 5.57279 0.00000
3620.92 1.78013 1.78013 38.87198 38.87 0.00 38.87 -11.17720 -11.17720 0.00000
3645.91 1.57508 1.57508 -29.43061 -29.43 0.00 -29.43 11.38529 11.38529 0.00000
3670.88 1.59475 1.59475 40.37836 40.38 0.00 40.38 -11.86470 -11.86470 0.00000
3695.87 1.23586 1.23586 -36.82326 -36.82 0.00 -36.82 13.51029 13.51029 0.00000
3720.89 1.29549 1.29549 55.04308 55.04 0.00 55.04 -17.05220 -17.05220 0.00000
3745.88 1.26958 1.26958 -43.65959 -43.66 0.00 -43.66 15.82278 15.82278 0.00000
3770.87 1.34856 1.34856 19.01483 19.01 0.00 19.01 -4.98972 -4.98972 0.00000
3796.02 1.38496 1.38496 -4.68851 -4.69 0.00 -4.69 2.94779 2.94779 0.00000
3820.98 1.43806 1.43806 -37.90420 -37.90 0.00 -37.90 14.07279 14.07279 0.00000
3845.91 1.53389 1.53389 41.50826 41.51 0.00 41.51 -12.30220 -12.30220 0.00000
3870.88 1.50822 1.50822 9.55631 9.56 0.00 9.56 -1.67721 -1.67721 0.00000
3895.87 1.59452 1.59452 -22.05980 -22.06 0.00 -22.06 8.94778 8.94778 0.00000
3920.90 1.71824 1.71824 3.99886 4.00 0.00 4.00 0.38529 0.38529 0.00000
3945.88 1.76054 1.76054 64.50075 64.50 0.00 64.50 -19.73971 -19.73971 0.00000
3970.89 1.48690 1.48690 -33.63266 -33.63 0.00 -33.63 12.69779 12.69779 0.00000
3995.69 1.67773 1.67773 11.00234 11.00 0.00 11.00 -1.98971 -1.98971 0.00000
4020.87 1.70403 1.70403 21.76873 21.77 0.00 21.77 -5.55221 -5.55221 0.00000
4045.86 1.44493 1.44493 -1.88353 -1.88 0.00 -1.88 2.07277 2.07277 0.00000
4070.92 1.44673 1.44673 -33.19066 -33.19 0.00 -33.19 12.51029 12.51029 0.00000
4095.90 1.59808 1.59808 46.57583 46.58 0.00 46.58 -13.92720 -13.92720 0.00000
4120.90 1.20390 1.20390 -9.35666 -9.36 0.00 -9.36 4.32278 4.32278 0.00000
4145.92 1.31227 1.31227 -32.65657 -32.66 0.00 -32.66 12.19779 12.19779 0.00000
4170.89 1.39254 1.39254 72.77175 72.77 0.00 72.77 -22.86471 -22.86471 0.00000
4195.87 1.16582 1.16582 -32.34591 -32.35 0.00 -32.35 11.94778 11.94778 0.00000
4220.89 1.42230 1.42230 23.54851 23.55 0.00 23.55 -6.42720 -6.42720 0.00000
4245.88 1.11892 1.11892 30.32593 30.33 0.00 30.33 -8.98972 -8.98972 0.00000
4270.89 1.13817 1.13817 -27.36634 -27.37 0.00 -27.37 10.26028 10.26028 0.00000
4295.87 1.32596 1.32596 49.88450 49.88 0.00 49.88 -15.30220 -15.30220 0.00000
4320.67 1.15695 1.15695 -37.24750 -37.25 0.00 -37.25 13.57278 13.57278 0.00000
4345.88 1.43822 1.43822 60.90878 60.91 0.00 60.91 -18.86471 -18.86471 0.00000
4370.88 1.32043 1.32043 5.99296 5.99 0.00 5.99 -0.67722 -0.67722 0.00000
4395.90 1.44725 1.44725 -25.87661 -25.88 0.00 -25.88 10.07279 10.07279 0.00000
4420.89 1.33899 1.33899 39.98612 39.99 0.00 39.99 -11.98971 -11.98971 0.00000
4445.89 1.35394 1.35394 -49.21905 -49.22 0.00 -49.22 17.76029 17.76029 0.00000
4470.89 1.71102 1.71102 59.28968 59.29 0.00 59.29 -18.05220 -18.05220 0.00000
4495.91 1.17493 1.17493 -32.50604 -32.51 0.00 -32.51 12.01028 12.01028 0.00000
4520.88 1.41619 1.41619 28.21768 28.22 0.00 28.22 -7.98971 -7.98971 0.00000
4545.88 1.10306 1.10306 6.09085 6.09 0.00 6.09 -0.92723 -0.92723 0.00000
4570.89 1.12668 1.12668 -23.83833 -23.84 0.00 -23.84 9.07279 9.07279 0.00000
4595.90 1.16039 1.16039 35.13781 35.14 0.00 35.14 -10.55222 -10.55222 0.00000
4620.87 1.09211 1.09211 -31.81704 -31.82 0.00 -31.82 11.69779 11.69779 0.00000
4645.91 0.95456 0.95456 26.27032 26.27 0.00 26.27 -7.80221 -7.80221 0.00000
4670.91 0.99890 0.99890 -7.72166 -7.72 0.00 -7.72 3.57279 3.57279 0.00000
4695.86 0.63370 0.63370 16.12024 16.12 0.00 16.12 -4.73971 -4.73971 0.00000
4720.90 0.63524 0.63524 -50.25016 -50.25 0.00 -50.25 17.38529 17.38529 0.00000
4745.89 0.75900 0.75900 42.93362 42.93 0.00 42.93 -13.55221 -13.55221 0.00000
4770.91 0.53984 0.53984 -55.41134 -55.41 0.00 -55.41 19.01029 19.01029 0.00000
4795.87 0.72324 0.72324 54.63888 54.64 0.00 54.64 -17.48972 -17.48972 0.00000
4820.67 0.42534 0.42534 -49.37984 -49.38 0.00 -49.38 16.88529 16.88529 0.00000
4845.89 0.81613 0.81613 48.16754 48.17 0.00 48.17 -15.23972 -15.23972 0.00000
4870.88 0.61517 0.61517 -41.49788 -41.50 0.00 -41.50 14.44779 14.44779 0.00000
4895.87 0.72857 0.72857 40.02983 40.03 0.00 40.03 -12.61471 -12.61471 0.00000
4921.10 0.46177 0.46177 -20.20803 -20.21 0.00 -20.21 7.19778 7.19778 0.00000
4945.88 0.52469 0.52469 38.29321 38.29 0.00 38.29 -12.23971 -12.23971 0.00000
4971.08 0.49824 0.49824 -13.16113 -13.16 0.00 -13.16 4.88528 4.88528 0.00000
4995.67 0.61198 0.61198 23.36761 23.37 0.00 23.37 -7.17722 -7.17722 0.00000
5021.21 0.53894 0.53894 5.52347 5.52 0.00 5.52 -1.30221 -1.30221 0.00000
5045.90 0.37341 0.37341 -29.66063 -29.66 0.00 -29.66 10.26029 10.26029 0.00000
5071.12 0.42296 0.42296 -39.63700 -39.64 0.00 -39.64 13.63530 13.63530 0.00000
5095.89 0.34724 0.34724 42.26086 42.26 0.00 42.26 -13.73972 -13.73972 0.00000
5121.09 0.17316 0.17316 -34.57386 -34.57 0.00 -34.57 11.69778 11.69778 0.00000
5145.90 0.34526 0.34526 -15.30758 -15.31 0.00 -15.31 5.44779 5.44779 0.00000
5171.08 0.13055 0.13055 42.54826 42.55 0.00 42.55 -14.05221 -14.05221 0.00000
5195.89 0.18215 0.18215 -24.98440 -24.98 0.00 -24.98 8.51028 8.51028 0.00000
5221.13 0.17205 0.17205 -11.13969 -11.14 0.00 -11.14 3.88528 3.88528 0.00000
5245.91 0.26709 0.26709 30.58285 30.58 0.00 30.58 -9.92720 -9.92720 0.00000
5271.10 0.20705 0.20705 17.65282 17.65 0.00 17.65 -5.67723 -5.67723 0.00000
5295.87 0.05994 0.05994 -48.97604 -48.98 0.00 -48.98 16.38528 16.38528 0.00000
5321.10 0.39336 0.39336 6.77417 6.77 0.00 6.77 -1.86469 -1.86469 0.00000
5345.90 0.16909 0.16909 -1.02359 -1.02 0.00 -1.02 0.51029 0.51029 0.00000
5371.09 0.23027 0.23027 -55.21505 -55.22 0.00 -55.22 18.63529 18.63529 0.00000
5395.90 0.32511 0.32511 55.69443 55.69 0.00 55.69 -18.23970 -18.23970 0.00000
5421.12 -0.02596 -0.02596 -8.73370 -8.73 0.00 -8.73 2.88527 2.88527 0.00000
5445.90 0.24102 0.24102 -13.74530 -13.75 0.00 -13.75 4.82279 4.82279 0.00000
5471.09 0.24560 0.24560 47.58092 47.58 0.00 47.58 -15.61471 -15.61471 0.00000
5495.91 -0.03196 -0.03196 -40.25173 -40.25 0.00 -40.25 13.38528 13.38528 0.00000
5521.11 0.03660 0.03660 13.39144 13.39 0.00 13.39 -4.42721 -4.42721 0.00000
5545.87 -0.23422 -0.23422 -3.92099 -3.92 0.00 -3.92 1.07278 1.07278 0.00000
5571.11 -0.21168 -0.21168 -25.04091 -25.04 0.00 -25.04 8.13529 8.13529 0.00000
5595.87 -0.24757 -0.24757 45.53894 45.54 0.00 45.54 -15.42722 -15.42722 0.00000
5621.09 -0.30807 -0.30807 -60.58010 -60.58 0.00 -60.58 19.88529 19.88529 0.00000
5645.88 -0.10322 -0.10322 42.40945 42.41 0.00 42.41 -14.23970 -14.23970 0.00000
5671.09 -0.24806 -0.24806 -36.02501 -36.03 0.00 -36.03 11.76028 11.76028 0.00000
5695.90 -0.03117 -0.03117 46.00061 46.00 0.00 46.00 -15.36471 -15.36471 0.00000
5721.09 -0.41294 -0.41294 -29.95715 -29.96 0.00 -29.96 9.57278 9.57278 0.00000
5745.86 -0.10793 -0.10793 41.27031 41.27 0.00 41.27 -13.86470 -13.86470 0.00000
5771.09 -0.34058 -0.34058 10.75993 10.76 0.00 10.76 -3.92722 -3.92722 0.00000
5795.86 -0.26395 -0.26395 -15.26024 -15.26 0.00 -15.26 4.82279 4.82279 0.00000
5821.11 -0.43264 -0.43264 9.17122 9.17 0.00 9.17 -3.48972 -3.48972 0.00000
5845.89 -0.21002 -0.21002 22.02657 22.03 0.00 22.03 -7.55221 -7.55221 0.00000
5871.08 -0.41772 -0.41772 27.77849 27.78 0.00 27.78 -9.67722 -9.67722 0.00000
5895.92 -0.45127 -0.45127 -61.38470 -61.38 0.00 -61.38 20.01029 20.01029 0.00000
5921.13 -0.26095 -0.26095 55.43629 55.44 0.00 55.44 -18.73972 -18.73972 0.00000
5945.87 -0.44625 -0.44625 -54.80708 -54.81 0.00 -54.81 17.82278 17.82278 0.00000
5971.09 -0.27518 -0.27518 40.58110 40.58 0.00 40.58 -13.80222 -13.80222 0.00000
5995.89 -0.60141 -0.60141 -66.14759 -66.15 0.00 -66.15 21.44779 21.44779 0.00000
6021.08 -0.70483 -0.70483 10.97966 10.98 0.00 10.98 -4.36472 -4.36472 0.00000
6045.86 -0.75302 -0.75302 -7.35242 -7.35 0.00 -7.35 1.69778 1.69778 0.00000
6071.09 -0.83951 -0.83951 12.82564 12.83 0.00 12.83 -5.11472 -5.11472 0.00000
6095.87 -0.73068 -0.73068 4.90209 4.90 0.00 4.90 -2.36471 -2.36471 0.00000
6121.08 -0.77668 -0.77668 12.07663 12.08 0.00 12.08 -4.80222 -4.80222 0.00000
6146.01 -1.04148 -1.04148 -50.03027 -50.03 0.00 -50.03 15.63528 15.63528 0.00000
6171.16 -0.87809 -0.87809 6.33484 6.33 0.00 6.33 -2.98971 -2.98971 0.00000
6195.94 -0.81683 -0.81683 40.83114 40.83 0.00 40.83 -14.42721 -14.42721 0.00000
